#Format: frequency (Hz)  ratio (dB)  phase (deg)
           1     -74.7615     -157.039
     1.00926     -75.2876     -157.267
     1.01861     -75.8051     -157.474
     1.02804     -76.3146      -157.66
     1.03757     -76.8165     -157.828
     1.04718     -77.3114     -157.978
     1.05688     -77.7995     -158.112
     1.06667     -78.2812     -158.231
     1.07654     -78.7568     -158.337
     1.08652     -79.2267      -158.43
     1.09658     -79.6911     -158.511
     1.10674     -80.1504     -158.581
     1.11699     -80.6046     -158.641
     1.12733     -81.0542      -158.69
     1.13777     -81.4992     -158.731
     1.14831     -81.9399     -158.762
     1.15895     -82.3765     -158.786
     1.16968     -82.8091     -158.801
     1.18052     -83.2379     -158.809
     1.19145     -83.6631      -158.81
     1.20249     -84.0848     -158.805
     1.21362     -84.5032     -158.793
     1.22486     -84.9183     -158.775
     1.23621     -85.3304     -158.751
     1.24766     -85.7394     -158.721
     1.25922     -86.1456     -158.686
     1.27088      -86.549     -158.646
     1.28265     -86.9497       -158.6
     1.29453     -87.3479     -158.551
     1.30652     -87.7435     -158.496
     1.31862     -88.1367     -158.436
     1.33083     -88.5276     -158.372
     1.34316     -88.9163     -158.304
      1.3556     -89.3027     -158.233
     1.36816     -89.6869     -158.156
     1.38083     -90.0692     -158.076
     1.39362     -90.4494     -157.992
     1.40653     -90.8277     -157.904
     1.41955     -91.2041     -157.813
      1.4327     -91.5786     -157.718
     1.44597     -91.9514      -157.62
     1.45937     -92.3224     -157.518
     1.47288     -92.6917     -157.412
     1.48652     -93.0594     -157.303
     1.50029     -93.4254     -157.192
     1.51419     -93.7899     -157.076
     1.52821     -94.1528     -156.958
     1.54237     -94.5143     -156.836
     1.55665     -94.8742     -156.711
     1.57107     -95.2328     -156.584
     1.58562     -95.5898     -156.453
     1.60031     -95.9456      -156.32
     1.61513        -96.3     -156.183
     1.63009     -96.6531     -156.043
     1.64519     -97.0048     -155.901
     1.66043     -97.3553     -155.755
     1.67581     -97.7046     -155.607
     1.69133     -98.0526     -155.455
     1.70699     -98.3994     -155.301
     1.72281     -98.7451     -155.144
     1.73876     -99.0895     -154.985
     1.75487     -99.4328     -154.822
     1.77112     -99.7749     -154.656
     1.78753     -100.116     -154.488
     1.80408     -100.456     -154.317
     1.82079     -100.795     -154.143
     1.83766     -101.133     -153.966
     1.85468     -101.469     -153.787
     1.87186     -101.805     -153.605
     1.88919     -102.139      -153.42
     1.90669     -102.473     -153.232
     1.92435     -102.806     -153.041
     1.94217     -103.137     -152.847
     1.96016     -103.468     -152.651
     1.97832     -103.797     -152.453
     1.99664     -104.126      -152.25
     2.01514     -104.453     -152.046
      2.0338      -104.78     -151.838
     2.05264     -105.105     -151.628
     2.07165      -105.43     -151.414
     2.09084     -105.753     -151.198
      2.1102     -106.076      -150.98
     2.12975     -106.398     -150.758
     2.14947     -106.718     -150.533
     2.16938     -107.038     -150.305
     2.18948     -107.357     -150.074
     2.20976     -107.674      -149.84
     2.23022     -107.991     -149.604
     2.25088     -108.307     -149.364
     2.27173     -108.622     -149.122
     2.29277     -108.935     -148.876
     2.31401     -109.248     -148.628
     2.33544      -109.56     -148.376
     2.35707     -109.871     -148.121
      2.3789      -110.18     -147.863
     2.40093     -110.489     -147.603
     2.42317     -110.797     -147.338
     2.44562     -111.104     -147.071
     2.46827     -111.409       -146.8
     2.49113     -111.714     -146.527
      2.5142     -112.017      -146.25
     2.53749      -112.32     -145.969
     2.56099     -112.621     -145.685
     2.58471     -112.921     -145.399
     2.60865      -113.22     -145.108
     2.63282     -113.518     -144.815
      2.6572     -113.815     -144.518
     2.68181      -114.11     -144.217
     2.70665     -114.405     -143.914
     2.73172     -114.698     -143.606
     2.75702      -114.99     -143.296
     2.78256      -115.28     -142.981
     2.80833     -115.569     -142.663
     2.83434     -115.857     -142.342
      2.8606     -116.144     -142.016
     2.88709     -116.429     -141.687
     2.91383     -116.713     -141.355
     2.94082     -116.995     -141.019
     2.96806     -117.276     -140.679
     2.99555     -117.556     -140.335
     3.02329     -117.833     -139.988
      3.0513      -118.11     -139.637
     3.07956     -118.384     -139.282
     3.10808     -118.657     -138.923
     3.13687     -118.928     -138.561
     3.16592     -119.198     -138.194
     3.19525     -119.465     -137.824
     3.22484     -119.731      -137.45
     3.25471     -119.995     -137.072
     3.28486     -120.257     -136.689
     3.31528     -120.516     -136.304
     3.34599     -120.774     -135.914
     3.37698     -121.029     -135.521
     3.40826     -121.283     -135.123
     3.43983     -121.533     -134.722
     3.47169     -121.782     -134.317
     3.50384     -122.028     -133.908
      3.5363     -122.271     -133.496
     3.56905     -122.512      -133.08
     3.60211      -122.75      -132.66
     3.63547     -122.985     -132.238
     3.66914     -123.217     -131.811
     3.70313     -123.446     -131.381
     3.73743     -123.671     -130.948
     3.77204     -123.893     -130.512
     3.80698     -124.112     -130.073
     3.84224     -124.327     -129.632
     3.87783     -124.539     -129.188
     3.91375     -124.746     -128.742
        3.95     -124.949     -128.294
     3.98658     -125.148     -127.845
     4.02351     -125.342     -127.394
     4.06077     -125.532     -126.942
     4.09838     -125.716      -126.49
     4.13634     -125.896     -126.037
     4.17466      -126.07     -125.585
     4.21332     -126.238     -125.135
     4.25235       -126.4     -124.687
     4.29173     -126.556     -124.241
     4.33148     -126.706     -123.799
      4.3716     -126.848     -123.362
     4.41209     -126.983      -122.93
     4.45296      -127.11     -122.506
      4.4942     -127.228      -122.09
     4.53583     -127.339     -121.684
     4.57784     -127.439     -121.291
     4.62024      -127.53     -120.911
     4.66303     -127.611     -120.549
     4.70622      -127.68     -120.205
     4.74981     -127.738     -119.885
     4.79381     -127.783     -119.592
     4.83821     -127.815     -119.329
     4.88302     -127.832     -119.102
     4.92825     -127.834     -118.917
      4.9739     -127.819     -118.782
     5.01997     -127.786     -118.703
     5.06646     -127.734     -118.691
     5.11339     -127.662     -118.757
     5.16075     -127.566     -118.917
     5.20855     -127.447     -119.186
     5.25679     -127.302     -119.585
     5.30548     -127.129     -120.142
     5.35462     -126.925     -120.886
     5.40422      -126.69     -121.858
     5.45427      -126.42     -123.109
     5.50479     -126.115     -124.699
     5.55578     -125.775     -126.709
     5.60723     -125.403     -129.237
     5.65917     -125.003     -132.404
     5.71159     -124.589     -136.351
     5.76449     -124.183     -141.235
     5.81788     -123.821     -147.192
     5.87177     -123.555     -154.289
     5.92615     -123.451     -162.438
     5.98104     -123.572      -171.32
     6.03644     -123.954      179.595
     6.09235     -124.592      170.907
     6.14878     -125.436       163.09
     6.20573     -126.421      156.387
     6.26321     -127.484      150.826
     6.32122     -128.577      146.312
     6.37977      -129.67      142.697
     6.43886     -130.743      139.829
      6.4985     -131.786      137.571
     6.55869     -132.796      135.809
     6.61943     -133.769      134.451
     6.68074     -134.707      133.425
     6.74262     -135.612      132.671
     6.80507     -136.484      132.144
      6.8681     -137.326      131.806
     6.93172      -138.14      131.627
     6.99592     -138.927      131.585
     7.06072      -139.69      131.658
     7.12612     -140.431      131.832
     7.19212      -141.15      132.093
     7.25873     -141.849      132.429
     7.32597      -142.53      132.831
     7.39382     -143.194      133.293
      7.4623      -143.84      133.806
     7.53142     -144.472      134.366
     7.60118     -145.089      134.968
     7.67158     -145.692      135.606
     7.74264     -146.281      136.278
     7.81435     -146.858      136.981
     7.88673     -147.423      137.712
     7.95978     -147.977      138.467
      8.0335     -148.519      139.245
     8.10791      -149.05      140.044
     8.18301     -149.571      140.862
      8.2588     -150.082      141.698
     8.33529     -150.583      142.549
      8.4125     -151.074      143.414
     8.49042     -151.556      144.293
     8.56906     -152.028      145.183
     8.64842     -152.492      146.084
     8.72853     -152.946      146.994
     8.80937     -153.391      147.912
     8.89097     -153.828      148.837
     8.97332     -154.256      149.767
     9.05643     -154.675      150.702
     9.14031     -155.086       151.64
     9.22497     -155.488       152.58
     9.31041     -155.881      153.522
     9.39665     -156.266      154.463
     9.48368     -156.642      155.403
     9.57152      -157.01      156.341
     9.66017     -157.369      157.276
     9.74965      -157.72      158.208
     9.83995     -158.062      159.136
     9.93109     -158.396       160.06
     10.0231     -158.721      160.982
     10.1159     -159.039      161.903
     10.2096     -159.347      162.827
     10.3042     -159.648       163.76
     10.3996      -159.94      164.709
     10.4959     -160.223      165.687
     10.5931     -160.497      166.711
     10.6913      -160.76      167.807
     10.7903     -161.011       169.01
     10.8902     -161.246      170.371
     10.9911     -161.457      171.964
     11.0929     -161.632      173.891
     11.1956     -161.751        176.3
     11.2993     -161.774      179.403
      11.404     -161.628     -176.504
     11.5096     -161.165     -171.026
     11.6162     -160.078     -163.734
     11.7238     -157.629     -154.566
     11.8324     -151.303     -146.653
      11.942     -144.765      78.7811
     12.0526       -157.2      76.6153
     12.1642     -161.824      86.4376
     12.2769     -164.449      94.9981
     12.3906     -166.219      101.776
     12.5054     -167.571      107.143
     12.6212       -168.7      111.529
     12.7381     -169.704      115.276
     12.8561     -170.633      118.635
     12.9752     -171.511      121.784
     13.0954     -172.355       124.85
     13.2166     -173.169      127.927
     13.3391     -173.959      131.081
     13.4626     -174.724      134.367
     13.5873     -175.464      137.824
     13.7131     -176.176      141.487
     13.8402     -176.858      145.386
     13.9684     -177.505      149.548
     14.0977     -178.114      154.001
     14.2283     -178.677      158.769
     14.3601     -179.187      163.881
     14.4931     -179.634      169.367
     14.6273     -180.007      175.257
     14.7628      -180.29     -178.416
     14.8996     -180.462     -171.618
     15.0376     -180.497     -164.319
     15.1768     -180.356     -156.491
     15.3174     -179.989      -148.12
     15.4593     -179.318     -139.224
     15.6025     -178.219     -129.884
      15.747     -176.478     -120.367
     15.8928      -173.64     -111.559
       16.04     -168.438     -107.852
     16.1886     -159.059     -165.853
     16.3385     -168.991      139.635
     16.4899     -174.487      147.558
     16.6426     -177.436      163.588
     16.7967     -178.878     -175.704
     16.9523     -178.852     -149.765
     17.1093      -176.62     -116.784
     17.2678     -169.642     -75.6144
     17.4277     -142.724      -71.457
     17.5892     -144.952      111.745
     17.7521     -162.202     -21.5299
     17.9165     -175.197      20.5592
     18.0824     -179.689      57.7278
     18.2499     -180.709      86.3946
      18.419     -179.272      107.284
     18.5896     -174.307      114.926
     18.7617     -169.644      32.4966
     18.9355     -180.371      9.44017
     19.1109     -186.071       17.593
     19.2879     -189.847      28.6686
     19.4666     -192.653      40.0021
     19.6469     -194.863      51.0069
     19.8288     -196.663       61.511
     20.0125     -198.165      71.4667
     20.1979     -199.441      80.8718
     20.3849     -200.539      89.7464
     20.5737     -201.498       98.119
     20.7643     -202.343      106.025
     20.9566     -203.097        113.5
     21.1507     -203.775      120.578
     21.3466     -204.392      127.296
     21.5443     -204.956      133.683
     21.7439     -205.477       139.77
     21.9453     -205.961      145.583
     22.1486     -206.413      151.149
     22.3537     -206.839      156.486
     22.5607     -207.242      161.618
     22.7697     -207.625      166.561
     22.9806      -207.99      171.332
     23.1935     -208.341      175.947
     23.4083     -208.678     -179.583
     23.6251     -209.003     -175.243
     23.8439     -209.319     -171.022
     24.0648     -209.625      -166.91
     24.2876     -209.923     -162.898
     24.5126     -210.214     -158.975
     24.7396     -210.498     -155.133
     24.9688     -210.778     -151.365
     25.2001     -211.051     -147.663
     25.4335     -211.321     -144.018
      25.669     -211.586     -140.423
     25.9068     -211.848     -136.871
     26.1467     -212.107     -133.355
     26.3889     -212.362     -129.868
     26.6333     -212.615     -126.401
       26.88     -212.865     -122.946
      27.129     -213.114     -119.497
     27.3803      -213.36     -116.044
     27.6339     -213.604     -112.576
     27.8898     -213.846     -109.085
     28.1481     -214.086     -105.557
     28.4088     -214.324      -101.98
      28.672      -214.56     -98.3385
     28.9375     -214.793     -94.6154
     29.2056     -215.022     -90.7909
     29.4761     -215.247     -86.8404
     29.7491     -215.466     -82.7357
     30.0246     -215.677     -78.4419
     30.3027     -215.879     -73.9184
     30.5834     -216.065      -69.113
     30.8666     -216.233     -63.9639
     31.1525     -216.371     -58.3924
     31.4411      -216.47     -52.3038
     31.7323     -216.509     -45.5824
     32.0262     -216.461     -38.0914
     32.3228     -216.286     -29.6781
     32.6222     -215.919     -20.1907
     32.9244     -215.269     -9.51734
     33.2293     -214.201       2.3434
     33.5371     -212.524      15.1738
     33.8477     -209.952      28.3653
     34.1612         -206      40.4553
     34.4776     -199.642      46.6885
      34.797     -189.301      18.4539
     35.1193     -187.051     -60.7341
     35.4446     -191.144     -140.183
     35.7729     -200.818     -156.828
     36.1042     -206.354     -149.319
     36.4386     -209.712     -138.987
     36.7761      -211.93      -129.25
     37.1167     -213.501     -120.675
     37.4605     -214.681     -113.201
     37.8075      -215.61     -106.638
     38.1576     -216.372     -100.807
     38.5111     -217.016     -95.5596
     38.8678     -217.574     -90.7777
     39.2278      -218.07      -86.374
     39.5911     -218.516     -82.2773
     39.9578     -218.924     -78.4351
     40.3279     -219.302     -74.8042
     40.7014     -219.656     -71.3504
     41.0784     -219.988     -68.0462
     41.4589     -220.304     -64.8697
     41.8429     -220.606     -61.8021
     42.2304     -220.895     -58.8284
     42.6216     -221.173     -55.9356
     43.0164     -221.442     -53.1128
     43.4148     -221.703     -50.3509
     43.8169     -221.956     -47.6418
     44.2227     -222.202     -44.9788
     44.6323     -222.442     -42.3561
     45.0457     -222.676     -39.7683
      45.463     -222.904      -37.211
      45.884     -223.128     -34.6804
      46.309     -223.346     -32.1728
     46.7379      -223.56     -29.6853
     47.1708      -223.77     -27.2152
     47.6078     -223.975     -24.7599
     48.0487     -224.175     -22.3175
     48.4937     -224.372     -19.8862
     48.9429     -224.564     -17.4642
     49.3962     -224.752     -15.0503
     49.8537     -224.935     -12.6431
     50.3155     -225.114     -10.2417
     50.7815     -225.289     -7.84517
     51.2519      -225.46     -5.45285
     51.7266     -225.626     -3.06417
     52.2057     -225.788    -0.678703
     52.6892     -225.946      1.70384
     53.1772     -226.098      4.08361
     53.6698     -226.247      6.46067
     54.1669      -226.39      8.83495
     54.6686     -226.529      11.2062
     55.1749     -226.662      13.5743
      55.686     -226.791      15.9387
     56.2017     -226.915      18.2991
     56.7223     -227.034      20.6548
     57.2477     -227.148      23.0053
     57.7779     -227.257        25.35
      58.313      -227.36       27.688
     58.8532     -227.459      30.0185
     59.3983     -227.552      32.3408
     59.9484      -227.64      34.6539
     60.5037     -227.723       36.957
     61.0641     -227.801      39.2492
     61.6297     -227.873      41.5294
     62.2005     -227.941      43.7968
     62.7766     -228.004      46.0505
     63.3581     -228.061      48.2895
     63.9449     -228.114      50.5129
     64.5372     -228.162      52.7199
     65.1349     -228.205      54.9096
     65.7382     -228.244      57.0812
     66.3471     -228.278      59.2341
     66.9616     -228.308      61.3672
     67.5818     -228.333      63.4797
     68.2078     -228.354      65.5716
     68.8395     -228.372      67.6423
     69.4771     -228.385      69.6906
     70.1206     -228.395      71.7166
     70.7701     -228.401      73.7202
     71.4256     -228.403      75.6998
     72.0872     -228.402      77.6564
     72.7548     -228.398       79.589
     73.4287     -228.391      81.4975
     74.1088     -228.381       83.382
     74.7952     -228.369      85.2424
      75.488     -228.353      87.0787
     76.1872     -228.335      88.8904
     76.8928     -228.315       90.678
      77.605     -228.292       92.441
     78.3238     -228.268      94.1805
     79.0493     -228.241      95.8959
     79.7814     -228.212      97.5873
     80.5204     -228.182      99.2552
     81.2662      -228.15        100.9
     82.0189     -228.116      102.521
     82.7786     -228.081       104.12
     83.5453     -228.044      105.695
     84.3191     -228.007      107.249
     85.1001     -227.968       108.78
     85.8883     -227.927       110.29
     86.6838     -227.886      111.778
     87.4867     -227.844      113.246
      88.297     -227.801      114.692
     89.1148     -227.757      116.118
     89.9402     -227.712      117.524
     90.7733     -227.667      118.911
      91.614     -227.621      120.278
     92.4626     -227.574      121.625
      93.319     -227.527      122.954
     94.1833      -227.48      124.265
     95.0557     -227.432      125.559
     95.9361     -227.383      126.833
     96.8247     -227.334      128.092
     97.7215     -227.285      129.333
     98.6266     -227.236      130.557
     99.5401     -227.186      131.765
     100.462     -227.136      132.957
     101.393     -227.086      134.133
     102.332     -227.036      135.294
     103.279     -226.985       136.44
     104.236     -226.935      137.572
     105.202     -226.884      138.688
     106.176     -226.834      139.791
     107.159     -226.783      140.879
     108.152     -226.732      141.955
     109.154     -226.682      143.017
     110.165     -226.631      144.065
